PE UV       SUBTECH     SPECTRUM    ASCII       PEDS        4.00        
   -1
Sample5933.Probe.Raw.asc
24/02/27
16:45:12.00
24/02/27
16:45:12.00
Administrator

500.000000
1
Lambda 1050
1050L1611222
PerkinElmer UV WinLab 6.3.2.0749 / 2.02.06 Lambda 900 UV/VIS/NIR, Jan 28 2016 16:58:34

0
0
3350/8 1800.8/2.1 860.8/1.95 750/1.75
0
0
UV/VIS
1
1
1
DoubleDePol,CommonBeamDepol,RBeamAtt,SBeamAtt,uv/vis/nir detector, TDS WB InGaAs Detector
0
0
0
0
Program
Program
3350/8 1800.8/2.1 860.8/1.95 750/1.75
3350/0.18 1800.8/0.17 860.8/0.16
3350/0.18 1800.8/0.17 860.8/0.16
0
3350/1.00 1800.8/1.00
 
 
 
0
 
860.8
319.2
1800.8 860.8
Front
100
on
3350/S:100 3350/R:100
0
0
0
0
 
0
 
 
 
0
 
 
0
0
0
0
0
 
 
 
 
0
0


0
0
#HDR
-1
-1
#GR
nm
%T
1.0
0.0
1900.000000
-5.000000
281
8
100.180677
99.867107
#DATA
1900.000000	99.999792
1895.000000	99.990752
1890.000000	99.983362
1885.000000	99.998647
1880.000000	99.973769
1875.000000	99.965883
1870.000000	99.973821
1865.000000	100.003643
1860.000000	99.992077
1855.000000	99.968627
1850.000000	100.006673
1845.000000	100.011893
1840.000000	100.014502
1835.000000	100.001148
1830.000000	100.005331
1825.000000	99.978755
1820.000000	99.976116
1815.000000	100.002307
1810.000000	99.997061
1805.000000	100.003466
1800.000000	99.973295
1795.000000	99.978354
1790.000000	100.002680
1785.000000	99.972590
1780.000000	99.987737
1775.000000	99.983612
1770.000000	99.960325
1765.000000	99.974032
1760.000000	100.008350
1755.000000	100.010206
1750.000000	100.000103
1745.000000	100.018869
1740.000000	99.964335
1735.000000	99.975570
1730.000000	99.970004
1725.000000	99.983095
1720.000000	99.990414
1715.000000	99.977326
1710.000000	99.984231
1705.000000	99.982067
1700.000000	100.008248
1695.000000	100.018039
1690.000000	99.971249
1685.000000	99.964357
1680.000000	99.972794
1675.000000	99.975271
1670.000000	99.962275
1665.000000	99.971030
1660.000000	100.001134
1655.000000	99.990926
1650.000000	99.971954
1645.000000	99.978346
1640.000000	99.980924
1635.000000	99.976591
1630.000000	99.986800
1625.000000	99.974322
1620.000000	99.946695
1615.000000	99.982573
1610.000000	99.988966
1605.000000	99.952479
1600.000000	99.971963
1595.000000	99.990514
1590.000000	99.982989
1585.000000	99.995875
1580.000000	99.973607
1575.000000	99.985254
1570.000000	99.999072
1565.000000	99.978660
1560.000000	99.958248
1555.000000	99.977008
1550.000000	99.965877
1545.000000	99.995051
1540.000000	99.995567
1535.000000	99.987940
1530.000000	99.993197
1525.000000	99.992783
1520.000000	99.975672
1515.000000	99.990826
1510.000000	99.981139
1505.000000	99.975782
1500.000000	99.980007
1495.000000	100.008451
1490.000000	99.997321
1485.000000	100.010615
1480.000000	99.994436
1475.000000	99.985060
1470.000000	99.984235
1465.000000	99.991034
1460.000000	99.992269
1455.000000	99.980829
1450.000000	99.992785
1445.000000	99.982482
1440.000000	99.986914
1435.000000	99.987429
1430.000000	99.983927
1425.000000	99.977340
1420.000000	99.996807
1415.000000	99.979505
1410.000000	99.983520
1405.000000	99.987122
1400.000000	100.000412
1395.000000	99.979595
1390.000000	99.988978
1385.000000	100.007522
1380.000000	100.004946
1375.000000	99.992481
1370.000000	99.972714
1365.000000	99.968176
1360.000000	99.995158
1355.000000	99.980955
1350.000000	99.964264
1345.000000	99.987640
1340.000000	100.000309
1335.000000	99.998455
1330.000000	99.995572
1325.000000	99.967670
1320.000000	99.967054
1315.000000	99.978890
1310.000000	99.980022
1305.000000	99.986404
1300.000000	99.976722
1295.000000	99.966429
1290.000000	99.977345
1285.000000	99.952429
1280.000000	99.966841
1275.000000	99.983829
1270.000000	99.994025
1265.000000	99.993405
1260.000000	100.001752
1255.000000	99.998866
1250.000000	99.990727
1245.000000	99.983107
1240.000000	99.981874
1235.000000	99.986098
1230.000000	99.983521
1225.000000	99.973013
1220.000000	99.984236
1215.000000	99.984851
1210.000000	99.988251
1205.000000	99.995054
1200.000000	99.989285
1195.000000	99.988256
1190.000000	99.983825
1185.000000	99.997630
1180.000000	99.996187
1175.000000	99.995363
1170.000000	99.995465
1165.000000	99.996392
1160.000000	99.986289
1155.000000	99.993093
1150.000000	99.989175
1145.000000	99.990308
1140.000000	99.992370
1135.000000	99.981442
1130.000000	99.990515
1125.000000	100.000000
1120.000000	99.996803
1115.000000	99.995566
1110.000000	99.989481
1105.000000	99.986182
1100.000000	100.000206
1095.000000	99.992161
1090.000000	99.993398
1085.000000	99.994842
1080.000000	99.992881
1075.000000	99.988443
1070.000000	100.003199
1065.000000	100.013934
1060.000000	100.015895
1055.000000	100.004851
1050.000000	100.002890
1045.000000	100.006297
1040.000000	99.991536
1035.000000	99.982141
1030.000000	99.991534
1025.000000	99.999690
1020.000000	99.974915
1015.000000	99.981828
1010.000000	99.977182
1005.000000	99.955916
1000.000000	99.975834
995.000000	99.979341
990.000000	99.979647
985.000000	99.993904
980.000000	100.004546
975.000000	100.006097
970.000000	99.998863
965.000000	99.998140
960.000000	99.976026
955.000000	99.969407
950.000000	99.975088
945.000000	100.014682
940.000000	100.075297
935.000000	100.031750
930.000000	99.998759
925.000000	99.990693
920.000000	99.945830
915.000000	99.950165
910.000000	100.001035
905.000000	100.002795
900.000000	100.009007
895.000000	100.019266
890.000000	99.982295
885.000000	99.984564
880.000000	99.903020
875.000000	99.867107
870.000000	99.962899
865.000000	99.871219
860.000000	100.180677
855.000000	100.003702
850.000000	99.996516
845.000000	100.064222
840.000000	99.989845
835.000000	99.999909
830.000000	99.983570
825.000000	100.054972
820.000000	100.029217
815.000000	100.020912
810.000000	99.989538
805.000000	100.011191
800.000000	99.942096
795.000000	99.991132
790.000000	99.979512
785.000000	99.959867
780.000000	99.980799
775.000000	100.030847
770.000000	100.002744
765.000000	100.020367
760.000000	99.992272
755.000000	100.012276
750.000000	100.043443
745.000000	100.018571
740.000000	100.014626
735.000000	100.015052
730.000000	100.024208
725.000000	100.016760
720.000000	100.018709
715.000000	99.986158
710.000000	99.973551
705.000000	99.966689
700.000000	100.002203
695.000000	99.977711
690.000000	99.977934
685.000000	99.963673
680.000000	99.979749
675.000000	99.988824
670.000000	99.952862
665.000000	100.034171
660.000000	100.002447
655.000000	100.032373
650.000000	100.028693
645.000000	99.980802
640.000000	99.960663
635.000000	100.025783
630.000000	99.995252
625.000000	99.985836
620.000000	100.030648
615.000000	100.028995
610.000000	99.979231
605.000000	99.991743
600.000000	100.036150
595.000000	99.951162
590.000000	100.001996
585.000000	99.985010
580.000000	99.989393
575.000000	99.993287
570.000000	100.009631
565.000000	99.962745
560.000000	99.992258
555.000000	99.997081
550.000000	100.003931
545.000000	99.989805
540.000000	99.984232
535.000000	99.974899
530.000000	100.003651
525.000000	100.007822
520.000000	100.001831
515.000000	100.005195
510.000000	100.017528
505.000000	99.995005
500.000000	100.014483
