PE UV       SUBTECH     SPECTRUM    ASCII       PEDS        4.00        
   -1
D.Probe.Raw.asc
24/01/17
09:26:08.00
24/01/17
09:26:08.00
Administrator

200.000000
1
Lambda 1050
1050L1611222
PerkinElmer UV WinLab 6.3.2.0749 / 2.02.06 Lambda 900 UV/VIS/NIR, Jan 28 2016 16:58:34

0
0
3350/servo 1800.8/servo 860.8/2
0
0
UV/VIS
1
1
1
DoubleDePol,CommonBeamDepol,RBeamAtt,SBeamAtt,uv/vis/nir detector, TDS WB InGaAs Detector
0
0
0
0
Program
Program
3350/servo 1800.8/servo 860.8/2
3350/0.2 1800.8/0.2 860.8/0.2
3350/0.2 1800.8/0.2 860.8/0.2
0
3350/1.00 1800.8/1.00
 
 
 
0
 
860.8
319.2
1800.8 860.8
Front
100
on
S:100 R:100
0
0
0
0
 
0
 
 
 
0
 
 
0
0
0
0
0
 
 
 
 
0
0


0
0
#HDR
-1
-1
#GR
nm
%T
1.0
0.0
1200.000000
-1.000000
1001
8
89.950410
-0.010797
#DATA
1200.000000	89.940565
1199.000000	89.936272
1198.000000	89.933389
1197.000000	89.933428
1196.000000	89.934908
1195.000000	89.935244
1194.000000	89.939344
1193.000000	89.926334
1192.000000	89.927789
1191.000000	89.929268
1190.000000	89.943318
1189.000000	89.946581
1188.000000	89.947232
1187.000000	89.938574
1186.000000	89.922683
1185.000000	89.924418
1184.000000	89.923898
1183.000000	89.938172
1182.000000	89.934926
1181.000000	89.932802
1180.000000	89.928369
1179.000000	89.922433
1178.000000	89.931312
1177.000000	89.921788
1176.000000	89.920807
1175.000000	89.920839
1174.000000	89.914935
1173.000000	89.920378
1172.000000	89.934316
1171.000000	89.946367
1170.000000	89.935694
1169.000000	89.935719
1168.000000	89.941593
1167.000000	89.935434
1166.000000	89.939471
1165.000000	89.941434
1164.000000	89.944902
1163.000000	89.950410
1162.000000	89.948068
1161.000000	89.947069
1160.000000	89.944395
1159.000000	89.939406
1158.000000	89.931027
1157.000000	89.916600
1156.000000	89.913578
1155.000000	89.922228
1154.000000	89.924431
1153.000000	89.933106
1152.000000	89.932611
1151.000000	89.934066
1150.000000	89.943947
1149.000000	89.944786
1148.000000	89.933102
1147.000000	89.922481
1146.000000	89.923356
1145.000000	89.927551
1144.000000	89.923337
1143.000000	89.929449
1142.000000	89.942445
1141.000000	89.933603
1140.000000	89.922724
1139.000000	89.923242
1138.000000	89.917248
1137.000000	89.923819
1136.000000	89.920826
1135.000000	89.909206
1134.000000	89.901351
1133.000000	89.895424
1132.000000	89.908213
1131.000000	89.910111
1130.000000	89.916098
1129.000000	89.917206
1128.000000	89.926170
1127.000000	89.930050
1126.000000	89.925899
1125.000000	89.927923
1124.000000	89.918232
1123.000000	89.923583
1122.000000	89.921227
1121.000000	89.924364
1120.000000	89.924935
1119.000000	89.916651
1118.000000	89.911840
1117.000000	89.901137
1116.000000	89.903321
1115.000000	89.898788
1114.000000	89.893987
1113.000000	89.884348
1112.000000	89.889048
1111.000000	89.899160
1110.000000	89.899406
1109.000000	89.894188
1108.000000	89.892961
1107.000000	89.901491
1106.000000	89.907113
1105.000000	89.906967
1104.000000	89.899574
1103.000000	89.890688
1102.000000	89.882939
1101.000000	89.878005
1100.000000	89.885919
1099.000000	89.887608
1098.000000	89.887906
1097.000000	89.899593
1096.000000	89.902176
1095.000000	89.904246
1094.000000	89.896015
1093.000000	89.898687
1092.000000	89.918131
1091.000000	89.919336
1090.000000	89.911142
1089.000000	89.912549
1088.000000	89.915636
1087.000000	89.912067
1086.000000	89.911050
1085.000000	89.911728
1084.000000	89.913343
1083.000000	89.917732
1082.000000	89.913542
1081.000000	89.897374
1080.000000	89.889796
1079.000000	89.903770
1078.000000	89.911270
1077.000000	89.908527
1076.000000	89.913797
1075.000000	89.919395
1074.000000	89.927383
1073.000000	89.922988
1072.000000	89.906476
1071.000000	89.898588
1070.000000	89.899603
1069.000000	89.898082
1068.000000	89.904193
1067.000000	89.913407
1066.000000	89.914726
1065.000000	89.915061
1064.000000	89.915088
1063.000000	89.906608
1062.000000	89.901033
1061.000000	89.909276
1060.000000	89.914541
1059.000000	89.913017
1058.000000	89.907415
1057.000000	89.899105
1056.000000	89.879946
1055.000000	89.866366
1054.000000	89.872097
1053.000000	89.879013
1052.000000	89.876731
1051.000000	89.872236
1050.000000	89.877634
1049.000000	89.893811
1048.000000	89.896290
1047.000000	89.892564
1046.000000	89.891927
1045.000000	89.892014
1044.000000	89.888243
1043.000000	89.893347
1042.000000	89.903901
1041.000000	89.912124
1040.000000	89.915989
1039.000000	89.915515
1038.000000	89.913726
1037.000000	89.909149
1036.000000	89.900656
1035.000000	89.897012
1034.000000	89.894049
1033.000000	89.892146
1032.000000	89.890333
1031.000000	89.891140
1030.000000	89.890457
1029.000000	89.890497
1028.000000	89.892854
1027.000000	89.897736
1026.000000	89.904648
1025.000000	89.916713
1024.000000	89.923896
1023.000000	89.924118
1022.000000	89.919216
1021.000000	89.909335
1020.000000	89.911284
1019.000000	89.920351
1018.000000	89.927203
1017.000000	89.927886
1016.000000	89.920812
1015.000000	89.914607
1014.000000	89.904770
1013.000000	89.895585
1012.000000	89.885653
1011.000000	89.876819
1010.000000	89.872139
1009.000000	89.876669
1008.000000	89.882298
1007.000000	89.877635
1006.000000	89.878744
1005.000000	89.880519
1004.000000	89.873552
1003.000000	89.879232
1002.000000	89.890386
1001.000000	89.887040
1000.000000	89.875525
999.000000	89.870712
998.000000	89.861940
997.000000	89.855220
996.000000	89.871073
995.000000	89.879300
994.000000	89.874894
993.000000	89.884017
992.000000	89.891589
991.000000	89.892599
990.000000	89.896675
989.000000	89.891181
988.000000	89.891479
987.000000	89.890810
986.000000	89.879751
985.000000	89.878132
984.000000	89.884076
983.000000	89.883088
982.000000	89.883967
981.000000	89.881255
980.000000	89.873482
979.000000	89.876861
978.000000	89.879794
977.000000	89.882647
976.000000	89.883456
975.000000	89.875468
974.000000	89.870651
973.000000	89.880036
972.000000	89.893052
971.000000	89.884676
970.000000	89.880986
969.000000	89.888288
968.000000	89.895779
967.000000	89.889119
966.000000	89.871686
965.000000	89.869303
964.000000	89.867891
963.000000	89.865057
962.000000	89.860859
961.000000	89.857534
960.000000	89.852866
959.000000	89.848690
958.000000	89.855581
957.000000	89.870732
956.000000	89.867713
955.000000	89.864537
954.000000	89.855054
953.000000	89.853146
952.000000	89.848084
951.000000	89.835981
950.000000	89.843556
949.000000	89.846039
948.000000	89.844299
947.000000	89.848287
946.000000	89.850050
945.000000	89.846363
944.000000	89.840724
943.000000	89.849189
942.000000	89.856696
941.000000	89.851759
940.000000	89.840260
939.000000	89.835584
938.000000	89.851286
937.000000	89.861648
936.000000	89.860179
935.000000	89.854228
934.000000	89.855483
933.000000	89.846589
932.000000	89.852521
931.000000	89.871054
930.000000	89.870572
929.000000	89.861227
928.000000	89.853478
927.000000	89.860110
926.000000	89.853318
925.000000	89.836741
924.000000	89.823836
923.000000	89.819284
922.000000	89.824264
921.000000	89.821677
920.000000	89.820396
919.000000	89.809184
918.000000	89.798406
917.000000	89.802484
916.000000	89.815438
915.000000	89.822160
914.000000	89.819504
913.000000	89.810704
912.000000	89.791452
911.000000	89.789408
910.000000	89.806709
909.000000	89.813208
908.000000	89.805215
907.000000	89.806785
906.000000	89.802322
905.000000	89.798129
904.000000	89.802919
903.000000	89.791493
902.000000	89.794066
901.000000	89.824626
900.000000	89.836284
899.000000	89.821966
898.000000	89.805700
897.000000	89.795870
896.000000	89.804189
895.000000	89.814193
894.000000	89.804723
893.000000	89.802597
892.000000	89.786294
891.000000	89.772357
890.000000	89.773908
889.000000	89.767693
888.000000	89.763169
887.000000	89.767915
886.000000	89.780158
885.000000	89.783667
884.000000	89.782188
883.000000	89.792282
882.000000	89.785931
881.000000	89.777499
880.000000	89.787863
879.000000	89.775420
878.000000	89.751198
877.000000	89.751043
876.000000	89.761509
875.000000	89.758201
874.000000	89.763569
873.000000	89.752861
872.000000	89.737432
871.000000	89.741713
870.000000	89.743672
869.000000	89.754561
868.000000	89.765166
867.000000	89.748872
866.000000	89.736450
865.000000	89.725078
864.000000	89.752111
863.000000	89.777767
862.000000	89.745112
861.000000	89.738119
860.000000	89.344938
859.000000	89.398683
858.000000	89.228788
857.000000	89.336537
856.000000	89.352309
855.000000	89.412493
854.000000	89.433720
853.000000	89.264915
852.000000	89.432519
851.000000	89.364818
850.000000	89.350629
849.000000	89.284246
848.000000	89.344989
847.000000	89.420206
846.000000	89.417680
845.000000	89.335331
844.000000	89.358021
843.000000	89.413506
842.000000	89.325874
841.000000	89.490346
840.000000	89.350241
839.000000	89.359784
838.000000	89.343470
837.000000	89.390469
836.000000	89.358958
835.000000	89.341898
834.000000	89.281859
833.000000	89.278460
832.000000	89.329447
831.000000	89.341637
830.000000	89.333882
829.000000	89.309805
828.000000	89.301368
827.000000	89.361333
826.000000	89.315879
825.000000	89.301107
824.000000	89.306069
823.000000	89.268320
822.000000	89.290880
821.000000	89.308909
820.000000	89.236444
819.000000	89.258453
818.000000	89.300086
817.000000	89.301718
816.000000	89.308191
815.000000	89.242885
814.000000	89.224568
813.000000	89.266568
812.000000	89.240979
811.000000	89.207387
810.000000	89.194236
809.000000	89.209182
808.000000	89.188319
807.000000	89.196268
806.000000	89.142992
805.000000	89.154845
804.000000	89.175357
803.000000	89.067808
802.000000	88.980814
801.000000	89.041732
800.000000	89.124814
799.000000	89.204898
798.000000	89.198866
797.000000	89.200993
796.000000	89.202930
795.000000	89.217243
794.000000	89.238291
793.000000	89.201226
792.000000	89.196135
791.000000	89.206100
790.000000	89.216437
789.000000	89.245456
788.000000	89.275869
787.000000	89.269794
786.000000	89.273056
785.000000	89.247789
784.000000	89.276980
783.000000	89.283370
782.000000	89.283200
781.000000	89.257196
780.000000	89.231039
779.000000	89.256467
778.000000	89.265838
777.000000	89.279175
776.000000	89.255728
775.000000	89.240882
774.000000	89.268384
773.000000	89.224716
772.000000	89.241236
771.000000	89.273469
770.000000	89.267062
769.000000	89.232618
768.000000	89.274411
767.000000	89.297047
766.000000	89.284120
765.000000	89.252774
764.000000	89.207749
763.000000	89.263354
762.000000	89.247806
761.000000	89.253861
760.000000	89.210638
759.000000	89.230614
758.000000	89.237806
757.000000	89.221876
756.000000	89.221170
755.000000	89.183424
754.000000	89.145853
753.000000	89.135917
752.000000	89.141721
751.000000	89.135054
750.000000	89.161156
749.000000	89.165279
748.000000	89.178796
747.000000	89.142874
746.000000	89.079012
745.000000	89.093454
744.000000	89.135208
743.000000	89.173285
742.000000	89.193282
741.000000	89.169564
740.000000	89.160682
739.000000	89.144640
738.000000	89.133933
737.000000	89.129045
736.000000	89.121605
735.000000	89.151688
734.000000	89.179468
733.000000	89.191954
732.000000	89.191759
731.000000	89.208097
730.000000	89.223098
729.000000	89.239254
728.000000	89.220341
727.000000	89.214127
726.000000	89.219796
725.000000	89.216023
724.000000	89.196011
723.000000	89.203443
722.000000	89.198345
721.000000	89.211362
720.000000	89.199045
719.000000	89.202282
718.000000	89.195863
717.000000	89.207562
716.000000	89.184501
715.000000	89.209613
714.000000	89.213251
713.000000	89.189391
712.000000	89.199177
711.000000	89.180791
710.000000	89.173833
709.000000	89.160334
708.000000	89.176118
707.000000	89.171085
706.000000	89.175886
705.000000	89.170481
704.000000	89.151313
703.000000	89.156345
702.000000	89.158441
701.000000	89.176024
700.000000	89.159642
699.000000	89.158051
698.000000	89.148169
697.000000	89.136634
696.000000	89.142774
695.000000	89.135448
694.000000	89.144259
693.000000	89.145405
692.000000	89.144474
691.000000	89.143963
690.000000	89.124955
689.000000	89.128150
688.000000	89.139969
687.000000	89.125100
686.000000	89.112496
685.000000	89.118857
684.000000	89.122010
683.000000	89.114115
682.000000	89.114342
681.000000	89.105058
680.000000	89.109278
679.000000	89.119296
678.000000	89.100195
677.000000	89.102858
676.000000	89.105855
675.000000	89.080987
674.000000	89.098505
673.000000	89.122641
672.000000	89.095034
671.000000	89.089223
670.000000	89.107228
669.000000	89.098724
668.000000	89.087655
667.000000	89.095975
666.000000	89.080390
665.000000	89.083987
664.000000	89.090435
663.000000	89.089089
662.000000	89.082143
661.000000	89.070787
660.000000	89.080362
659.000000	89.080691
658.000000	89.079657
657.000000	89.074447
656.000000	89.070900
655.000000	89.065926
654.000000	89.057447
653.000000	89.065314
652.000000	89.062962
651.000000	89.044225
650.000000	89.050902
649.000000	89.065633
648.000000	89.052690
647.000000	89.029757
646.000000	89.024692
645.000000	89.042341
644.000000	89.031971
643.000000	89.019123
642.000000	89.037259
641.000000	89.044184
640.000000	89.035651
639.000000	89.012680
638.000000	89.003029
637.000000	89.017681
636.000000	89.016372
635.000000	89.004538
634.000000	89.015708
633.000000	89.024029
632.000000	89.008867
631.000000	88.996395
630.000000	89.001205
629.000000	88.995278
628.000000	88.990090
627.000000	88.993181
626.000000	88.987885
625.000000	88.984694
624.000000	88.986509
623.000000	88.982908
622.000000	88.974340
621.000000	88.963702
620.000000	88.987098
619.000000	88.985675
618.000000	88.959705
617.000000	88.960840
616.000000	88.954549
615.000000	88.957482
614.000000	88.963328
613.000000	88.961970
612.000000	88.963287
611.000000	88.949611
610.000000	88.941202
609.000000	88.959265
608.000000	88.944694
607.000000	88.919268
606.000000	88.908403
605.000000	88.905120
604.000000	88.903156
603.000000	88.896499
602.000000	88.893977
601.000000	88.900402
600.000000	88.889681
599.000000	88.890590
598.000000	88.907110
597.000000	88.909739
596.000000	88.904164
595.000000	88.890855
594.000000	88.873011
593.000000	88.830823
592.000000	88.817155
591.000000	88.826655
590.000000	88.832153
589.000000	88.830472
588.000000	88.825296
587.000000	88.794355
586.000000	88.776317
585.000000	88.742686
584.000000	88.725580
583.000000	88.751800
582.000000	88.770072
581.000000	88.748526
580.000000	88.765103
579.000000	88.771426
578.000000	88.771399
577.000000	88.764357
576.000000	88.773423
575.000000	88.774263
574.000000	88.764390
573.000000	88.759798
572.000000	88.757306
571.000000	88.768945
570.000000	88.751292
569.000000	88.742972
568.000000	88.759040
567.000000	88.759025
566.000000	88.767993
565.000000	88.781538
564.000000	88.757487
563.000000	88.748233
562.000000	88.740908
561.000000	88.746945
560.000000	88.741960
559.000000	88.738038
558.000000	88.730839
557.000000	88.730154
556.000000	88.730850
555.000000	88.717614
554.000000	88.702761
553.000000	88.710804
552.000000	88.696252
551.000000	88.693442
550.000000	88.691219
549.000000	88.703569
548.000000	88.688391
547.000000	88.680845
546.000000	88.688299
545.000000	88.645065
544.000000	88.636679
543.000000	88.636721
542.000000	88.628976
541.000000	88.614525
540.000000	88.620695
539.000000	88.642079
538.000000	88.638456
537.000000	88.633739
536.000000	88.614889
535.000000	88.598082
534.000000	88.597470
533.000000	88.602485
532.000000	88.588903
531.000000	88.575070
530.000000	88.577612
529.000000	88.570050
528.000000	88.569491
527.000000	88.544292
526.000000	88.534111
525.000000	88.517836
524.000000	88.544519
523.000000	88.524256
522.000000	88.530070
521.000000	88.533138
520.000000	88.526827
519.000000	88.528381
518.000000	88.519411
517.000000	88.495852
516.000000	88.497279
515.000000	88.486407
514.000000	88.474281
513.000000	88.461732
512.000000	88.459462
511.000000	88.436289
510.000000	88.428294
509.000000	88.420013
508.000000	88.407122
507.000000	88.374992
506.000000	88.314341
505.000000	88.240700
504.000000	88.163205
503.000000	88.000424
502.000000	87.789694
501.000000	87.470963
500.000000	86.979411
499.000000	86.266133
498.000000	85.109278
497.000000	82.927827
496.000000	79.102145
495.000000	73.936869
494.000000	67.594751
493.000000	58.462422
492.000000	48.892849
491.000000	44.412880
490.000000	43.865889
489.000000	40.425033
488.000000	30.281482
487.000000	18.137824
486.000000	13.319778
485.000000	18.525774
484.000000	27.884058
483.000000	37.748108
482.000000	49.721660
481.000000	60.540613
480.000000	67.167738
479.000000	71.512142
478.000000	74.999932
477.000000	78.031572
476.000000	80.896004
475.000000	83.372519
474.000000	85.088793
473.000000	86.152126
472.000000	86.826635
471.000000	87.274952
470.000000	87.548850
469.000000	87.758262
468.000000	87.863923
467.000000	87.946253
466.000000	87.986727
465.000000	87.998111
464.000000	88.032246
463.000000	88.030580
462.000000	88.044214
461.000000	88.041181
460.000000	88.042413
459.000000	88.014308
458.000000	88.006678
457.000000	87.997930
456.000000	87.982353
455.000000	87.989772
454.000000	87.967050
453.000000	87.948221
452.000000	87.946273
451.000000	87.943574
450.000000	87.933594
449.000000	87.917323
448.000000	87.899556
447.000000	87.856379
446.000000	87.857152
445.000000	87.833599
444.000000	87.799812
443.000000	87.826698
442.000000	87.799062
441.000000	87.781773
440.000000	87.788596
439.000000	87.767850
438.000000	87.731003
437.000000	87.745266
436.000000	87.704337
435.000000	87.727716
434.000000	87.717693
433.000000	87.691662
432.000000	87.675527
431.000000	87.670157
430.000000	87.650542
429.000000	87.666135
428.000000	87.627481
427.000000	87.641321
426.000000	87.620060
425.000000	87.624062
424.000000	87.578259
423.000000	87.542107
422.000000	87.543978
421.000000	87.507919
420.000000	87.496767
419.000000	87.500017
418.000000	87.496800
417.000000	87.471725
416.000000	87.422357
415.000000	87.406795
414.000000	87.408210
413.000000	87.391752
412.000000	87.351524
411.000000	87.339455
410.000000	87.345958
409.000000	87.347386
408.000000	87.310784
407.000000	87.302290
406.000000	87.265458
405.000000	87.247346
404.000000	87.246998
403.000000	87.229484
402.000000	87.191118
401.000000	87.174519
400.000000	87.187022
399.000000	87.135502
398.000000	87.143455
397.000000	87.098643
396.000000	87.099782
395.000000	87.042885
394.000000	87.011983
393.000000	86.972065
392.000000	86.828019
391.000000	86.602724
390.000000	86.202711
389.000000	85.351999
388.000000	83.517579
387.000000	79.678722
386.000000	71.351026
385.000000	55.785167
384.000000	35.612852
383.000000	18.316294
382.000000	8.239977
381.000000	3.894249
380.000000	1.923887
379.000000	0.671909
378.000000	0.134849
377.000000	0.001382
376.000000	-0.010797
375.000000	0.018010
374.000000	0.092527
373.000000	0.162995
372.000000	0.156701
371.000000	0.096643
370.000000	0.037291
369.000000	0.051228
368.000000	0.125181
367.000000	0.213322
366.000000	0.586778
365.000000	1.965680
364.000000	4.428118
363.000000	6.808413
362.000000	8.929760
361.000000	10.164516
360.000000	8.300491
359.000000	4.110789
358.000000	1.111269
357.000000	0.340887
356.000000	0.296803
355.000000	0.227439
354.000000	0.129728
353.000000	0.069094
352.000000	0.046724
351.000000	0.063232
350.000000	0.270441
349.000000	1.153773
348.000000	3.370821
347.000000	6.372345
346.000000	8.340437
345.000000	8.200834
344.000000	6.119191
343.000000	3.353808
342.000000	1.717948
341.000000	1.560695
340.000000	1.784757
339.000000	2.653897
338.000000	5.254438
337.000000	8.624799
336.000000	12.602685
335.000000	21.305791
334.000000	35.736422
333.000000	49.311115
332.000000	56.734061
331.000000	59.357296
330.000000	56.216013
329.000000	45.799275
328.000000	38.588133
327.000000	43.723556
326.000000	54.299179
325.000000	61.142804
324.000000	60.537486
323.000000	50.838449
322.000000	35.471481
321.000000	20.891366
320.000000	10.324630
319.000000	4.672504
318.000000	3.157227
317.000000	4.305590
316.000000	11.247495
315.000000	26.441519
314.000000	45.278068
313.000000	61.696786
312.000000	73.024075
311.000000	79.048573
310.000000	80.798109
309.000000	78.647465
308.000000	70.191284
307.000000	54.395844
306.000000	36.940835
305.000000	24.572038
304.000000	16.090792
303.000000	9.912369
302.000000	12.283295
301.000000	26.384603
300.000000	44.682997
299.000000	57.201748
298.000000	60.940674
297.000000	57.899738
296.000000	51.077165
295.000000	47.539897
294.000000	53.706693
293.000000	64.227844
292.000000	69.442911
291.000000	67.516823
290.000000	59.111098
289.000000	43.623476
288.000000	24.365185
287.000000	9.050362
286.000000	1.967865
285.000000	0.263930
284.000000	0.145201
283.000000	0.784588
282.000000	4.051173
281.000000	14.035573
280.000000	32.087447
279.000000	51.740155
278.000000	63.486635
277.000000	61.926006
276.000000	47.214160
275.000000	26.453011
274.000000	10.154371
273.000000	3.599685
272.000000	6.171505
271.000000	14.413982
270.000000	21.649820
269.000000	21.913873
268.000000	15.688570
267.000000	7.977094
266.000000	2.747714
265.000000	0.586529
264.000000	0.081533
263.000000	0.026039
262.000000	0.021156
261.000000	0.018122
260.000000	0.019188
259.000000	0.020256
258.000000	0.023443
257.000000	0.024382
256.000000	0.024923
255.000000	0.024535
254.000000	0.024940
253.000000	0.024017
252.000000	0.023227
251.000000	0.023099
250.000000	0.020047
249.000000	0.025624
248.000000	0.036645
247.000000	0.072216
246.000000	0.133280
245.000000	0.183741
244.000000	0.213243
243.000000	0.201084
242.000000	0.190519
241.000000	0.512719
240.000000	1.368258
239.000000	2.207211
238.000000	2.330419
237.000000	1.780629
236.000000	1.183627
235.000000	0.876085
234.000000	0.659933
233.000000	0.375938
232.000000	0.133049
231.000000	0.037813
230.000000	0.026866
229.000000	0.023267
228.000000	0.023407
227.000000	0.022742
226.000000	0.024757
225.000000	0.025570
224.000000	0.022232
223.000000	0.024651
222.000000	0.025601
221.000000	0.023336
220.000000	0.023079
219.000000	0.025375
218.000000	0.024587
217.000000	0.025678
216.000000	0.028384
215.000000	0.028808
214.000000	0.024924
213.000000	0.025213
212.000000	0.029280
211.000000	0.027010
210.000000	0.027711
209.000000	0.030312
208.000000	0.030080
207.000000	0.031742
206.000000	0.035711
205.000000	0.035196
204.000000	0.032357
203.000000	0.037788
202.000000	0.041853
201.000000	0.041012
200.000000	0.040434
